C Sea-level fluctuations: Haq et al. 1987 (QQ to base RR)
C           SHORT TERM
C
C Time scale: HARLAND82
C                              
C       TIME (ma)       AMPLITUDE (m)
C       ---------       -------------
        1000.000             0.000
         254.467             0.000
         253.867            -8.000
         253.467           -17.000
         253.000           -35.000
         252.920           -54.000
         252.750           -69.000
         252.550           -79.000
         252.310           -82.000
         252.130           -82.000
         251.950           -78.000
         251.850           -72.000
         251.750           -64.000
         251.610           -50.000
         251.430           -40.000
         251.030           -35.000
         250.670           -36.000
         250.310           -42.000
         250.110           -49.000
         249.930           -57.000
         249.710           -63.000
         249.290           -68.000
         248.980           -70.000
         248.660           -69.000
         248.360           -66.000
         248.180           -64.000
         248.060           -61.000
         247.980           -59.000
         247.840           -55.000
         247.690           -50.000
         247.540           -43.000
         247.340           -35.000
         247.150           -29.000
         246.930           -24.000
         246.790           -21.000
         246.680           -18.000
         246.550           -15.000
         246.340           -10.000
         246.220            -8.000
         246.130            -7.000
         245.870            -5.000
         245.700            -5.000
         245.510           -11.000
         245.370           -15.000
         245.125           -17.000
         244.935           -16.000
         244.745            -9.000
         244.625             0.000
         244.525             8.000
         244.355            11.000
         244.225            10.000
         244.115             5.000
         243.975             1.000
         243.845             2.000
         243.715             7.000
         243.605            12.000
         243.495            16.000
         243.345            14.000
         243.255            11.000
         243.165             7.000
         243.105             7.000
         243.015            10.000
         242.762            14.000
         242.563            18.000
         242.363            16.000
         242.088             6.000
         241.925            -5.000
         241.750           -14.000
         241.550           -14.000
         241.375           -11.000
         241.275            -8.000
         241.200             1.000
         241.050            10.000
         240.900            17.000
         240.625            20.000
         240.275            22.000
         239.975            20.000
         239.750            15.000
         239.600             5.000
         239.400            -7.000
         239.200           -13.000
         238.900           -14.000
         238.625           -14.000
         238.400           -11.000
         238.250            -6.000
         238.025             1.000
         237.636            11.000
         237.076            20.000
         236.544            25.000
         235.844            29.000
         234.948            33.000
         234.010            35.000
         233.422            33.000
         232.974            28.000
         232.638            22.000
         232.470            14.000
         232.414            -2.000
         232.302           -29.000
         232.148           -40.000
         231.952           -44.000
         231.784           -44.000
         231.532           -42.000
         231.364           -36.000
         231.196           -25.000
         230.978            -5.000
         230.842            13.000
         230.663            27.000
         230.348            41.000
         230.077            48.000
         229.702            53.000
         229.342            54.000
         229.132            51.000
         228.900            41.000
         228.750            30.000
         228.600            19.000
         228.435            15.000
         228.285            18.000
         228.090            23.000
         227.880            32.000
         227.640            44.000
         227.355            53.000
         226.995            61.000
         226.695            64.000
         226.380            62.000
         226.065            55.000
         225.900            43.000
         225.757            27.000
         225.638            16.000
         225.518            13.000
         225.443            13.000
         225.337            17.000
         225.292            24.000
         225.128            36.000
         224.830            49.000
         224.470            57.000
         223.990            62.000
         223.270            63.000
         222.250            61.000
         221.140            53.000
         220.160            44.000
         219.300            34.000
         218.357            20.000
         217.431             4.000
         216.780            -8.000
         216.154           -16.000
         215.571           -15.000
         215.109           -10.000
         214.697            -6.000
         214.406            -6.000
         214.063           -10.000
         213.309           -18.000
         212.666           -22.000
         211.670           -28.000
         211.048           -28.000
         210.472           -24.000
         209.850           -18.000
         209.430           -15.000
         208.971           -16.000
         208.551           -18.000
         207.696           -26.000
         207.058           -36.000
         206.716           -43.000
         206.412           -44.000
         206.101           -40.000
         205.769           -33.000
         205.494           -25.000
         205.254           -16.000
         204.929            -7.000
         204.569            -1.000
         204.157             1.000
         203.797            -2.000
         203.420            -8.000
         203.197            -9.000
         202.940            -5.000
         202.666             2.000
         202.374            14.000
         202.031            22.000
         201.774            24.000
         201.466            23.000
         201.106            18.000
         200.651            12.000
         200.240            10.000
         199.805            14.000
         199.490            19.000
         199.100            27.000
         198.755            35.000
         198.455            42.000
         198.275            45.000
         198.050            45.000
         197.870            44.000
         197.690            39.000
         197.405            36.000
         197.015            39.000
         196.760            41.000
         196.610            42.000
         196.408            39.000
         196.228            32.000
         196.092            26.000
         196.003            22.000
         195.913            23.000
         195.868            30.000
         195.837            34.000
         195.763            37.000
         195.643            36.000
         195.523            33.000
         195.327            28.000
         195.178            27.000
         195.072            28.000
         194.923            32.000
         194.788            32.000
         194.533            26.000
         194.202            19.000
         193.897            14.000
         193.571            12.000
         193.211            14.000
         192.869            23.000
         192.646            36.000
         192.389            49.000
         192.234            58.000
         192.097            62.000
         191.857            64.000
         191.531            64.000
         191.291            60.000
         191.051            56.000
         190.949            55.000
         190.846            56.000
         190.674            60.000
         190.571            63.000
         190.366            65.000
         190.074            61.000
         189.851            57.000
         189.629            54.000
         189.491            55.000
         189.166            56.000
         188.943            52.000
         188.737            47.000
         188.531            41.000
         188.171            36.000
         187.799            35.000
         187.484            38.000
         187.116            38.000
         186.731            33.000
         186.469            26.000
         186.128            17.000
         185.550            11.000
         184.990            11.000
         184.307            18.000
         183.468            32.000
         182.732            47.000
         181.963            67.000
         181.420            77.000
         180.800            82.000
         180.170            80.000
         179.850            77.000
         179.450            71.000
         179.050            65.000
         178.590            65.000
         178.090            65.000
         177.660            70.000
         177.090            82.000
         176.650            88.000
         176.500            88.000
         176.260            85.000
         175.940            83.000
         175.640            84.000
         174.972            88.000
         173.928            92.000
         172.992            90.000
         172.236            85.000
         171.521            77.000
         170.971            65.000
         170.408            52.000
         169.857            44.000
         169.500            41.000
         169.060            43.000
         168.592            47.000
         168.153            51.000
         167.822            49.000
         167.479            45.000
         167.231            44.000
         167.039            47.000
         166.791            49.000
         166.764            48.000
         166.571            44.000
         166.351            38.000
         166.104            28.000
         165.801            21.000
         165.458            19.000
         165.210            20.000
         164.880            24.000
         164.523            31.000
         164.151            43.000
         163.962            54.000
         163.910            60.000
         163.858            62.000
         163.814            60.000
         163.756            57.000
         163.720            52.000
         163.672            49.000
         163.600            48.000
         163.540            51.000
         163.496            56.000
         163.440            64.000
         163.372            78.000
         163.260            90.000
         163.116            97.000
         163.000            99.000
         162.100            97.000
         161.720            95.000
         161.350            96.000
         161.150           102.000
         161.080           108.000
         160.900           111.000
         160.820           110.000
         160.630           105.000
         160.530           103.000
         160.430           104.000
         160.290           109.000
         160.110           112.000
         159.930           113.000
         159.810           113.000
         159.630           111.000
         159.410           108.000
         159.170           105.000
         158.970           105.000
         158.830           108.000
         158.590           112.000
         158.310           115.000
         158.070           114.000
         157.730           111.000
         157.480           107.000
         157.180           103.000
         156.860           103.000
         156.580           106.000
         156.400           111.000
         156.140           122.000
         155.688           131.000
         155.376           131.000
         155.184           128.000
         154.800           124.000
         154.584           124.000
         154.320           125.000
         154.104           133.000
         153.744           142.000
         153.504           143.000
         153.360           140.000
         153.048           137.000
         152.568           133.000
         152.316           135.000
         151.884           138.000
         151.188           147.000
         150.396           157.000
         149.870           161.000
         149.570           160.000
         149.450           158.000
         149.330           151.000
         149.190           145.000
         149.050           147.000
         148.910           151.000
         148.770           158.000
         148.570           165.000
         148.510           165.000
         148.430           149.000
         148.480           128.000
         148.400           108.000
         148.240           105.000
         148.080           105.000
         147.960           109.000
         147.740           131.000
         147.460           152.000
         147.180           156.000
         146.820           155.000
         146.500           149.000
         146.420           137.000
         146.300            80.000
         146.200            70.000
         146.100            80.000
         146.010           106.000
         145.890           130.000
         145.680           140.000
         145.530           139.000
         145.410           135.000
         145.310           121.000
         145.250           102.000
         145.200            85.000
         145.060            79.000
         144.960            77.000
         144.840            80.000
         144.760            86.000
         144.720            99.000
         144.670           117.000
         144.570           126.000
         144.370           129.000
         144.170           125.000
         144.090           117.000
         143.940           103.000
         143.860            93.000
         143.660            86.000
         143.460            84.000
         143.320            87.000
         143.160            93.000
         142.940           102.000
         142.720           113.000
         142.540           119.000
         142.380           121.000
         142.180           121.000
         141.980           117.000
         141.760           110.000
         141.560           109.000
         141.420           113.000
         141.340           119.000
         141.160           130.000
         141.020           134.000
         140.720           137.000
         140.240           136.000
         139.650           124.000
         139.170           115.000
         138.950           112.000
         138.830           112.000
         138.810           108.000
         138.660            99.000
         138.620            80.000
         138.580            57.000
         138.550            30.000
         138.410            21.000
         138.250            19.000
         138.130            21.000
         138.010            27.000
         137.800            69.000
         137.520            94.000
         137.380            98.000
         137.200            98.000
         136.640            91.000
         136.350            83.000
         136.150            73.000
         136.030           -15.000
         135.890           -24.000
         135.670           -23.000
         135.570           -19.000
         135.380            22.000
         135.100            53.000
         134.690            67.000
         134.250            78.000
         133.650            89.000
         133.230            92.000
         132.820            91.000
         132.520            87.000
         132.260            84.000
         132.080            84.000
         131.380            98.000
         131.180           104.000
         131.040           107.000
         130.920           107.000
         130.840           105.000
         130.700           102.000
         130.580           102.000
         130.480           105.000
         130.400           108.000
         130.300           114.000
         130.220           121.000
         130.140           123.000
         130.000           124.000
         129.840           121.000
         129.760           118.000
         129.680           117.000
         129.620           118.000
         129.560           123.000
         129.520           128.000
         129.380           135.000
         129.160           137.000
         129.040           135.000
         128.840           129.000
         128.660           125.000
         128.520           126.000
         128.380           133.000
         128.180           145.000
         127.980           158.000
         127.760           164.000
         127.500           160.000
         127.340           154.000
         127.120           155.000
         126.980           158.000
         126.840           168.000
         126.560           173.000
         126.360           168.000
         126.200           162.000
         126.020           161.000
         125.840           164.000
         125.700           170.000
         125.440           173.000
         125.320           171.000
         125.190           165.000
         125.090           157.000
         124.835           156.000
         124.535           159.000
         124.085           164.000
         123.485           167.000
         123.275           164.000
         122.645           150.000
         122.585           150.000
         122.375           149.000
         122.030           150.000
         121.685           157.000
         121.280           159.000
         121.070           155.000
         120.830           141.000
         120.605           111.000
         120.545            88.000
         120.335            84.000
         120.155            86.000
         120.065            93.000
         119.915           112.000
         119.780           134.000
         119.600           148.000
         119.330           153.000
         118.808           155.000
         117.968           152.000
         117.620           144.000
         117.212           129.000
         116.780           126.000
         116.372           127.000
         116.036           132.000
         115.604           145.000
         115.340           147.000
         115.100           141.000
         114.896           119.000
         114.728           108.000
         114.536           115.000
         114.488           133.000
         114.200           146.000
         113.792           152.000
         113.312           152.000
         112.721           149.000
         112.132           150.000
         111.357           154.000
         110.675           162.000
         110.148           166.000
         109.218           167.000
         108.815           164.000
         108.396           160.000
         107.591           160.000
         106.816           164.000
         105.979           178.000
         105.513           188.000
         105.111           192.000
         104.893           192.000
         104.521           186.000
         104.336           179.000
         104.088           178.000
         103.809           180.000
         103.561           184.000
         103.343           193.000
         103.126           207.000
         102.847           210.000
         102.600           210.000
         102.382           202.000
         102.166           197.000
         101.855           198.000
         101.638           203.000
         101.483           209.000
         101.080           223.000
         100.739           230.000
         100.538           181.000
         100.321           177.000
         100.135           178.000
