C Sea-level fluctuations: Haq et al. 1987 (QQ to base RR)
C           SHORT TERM
C
C Time scale: "HARLAND89" (Harland et al. 1990)      
C                                                     
C       TIME (ma)       AMPLITUDE (m)                 
C       ---------       -------------                 
        1000.000             0.000
         252.496             0.000
         251.884            -8.000
         251.476           -17.000
         251.000           -35.000
         250.904           -54.000
         250.700           -69.000
         250.460           -79.000
         250.172           -82.000
         249.956           -82.000
         249.740           -78.000
         249.620           -72.000
         249.500           -64.000
         249.332           -50.000
         249.116           -40.000
         248.636           -35.000
         248.204           -36.000
         247.772           -42.000
         247.532           -49.000
         247.316           -57.000
         247.052           -63.000
         246.548           -68.000
         246.176           -70.000
         245.792           -69.000
         245.432           -66.000
         245.216           -64.000
         245.072           -61.000
         244.984           -59.000
         244.875           -55.000
         244.758           -50.000
         244.641           -43.000
         244.485           -35.000
         244.337           -29.000
         244.165           -24.000
         244.056           -21.000
         243.970           -18.000
         243.869           -15.000
         243.705           -10.000
         243.612            -8.000
         243.541            -7.000
         243.339            -5.000
         243.206            -5.000
         243.058           -11.000
         242.949           -15.000
         242.758           -17.000
         242.609           -16.000
         242.461            -9.000
         242.368             0.000
         242.290             8.000
         242.157            11.000
         242.055            10.000
         241.970             5.000
         241.861             1.000
         241.759             2.000
         241.658             7.000
         241.572            12.000
         241.486            16.000
         241.369            14.000
         241.299            11.000
         241.229             7.000
         241.182             7.000
         241.112            10.000
         241.024            14.000
         240.960            18.000
         240.896            16.000
         240.808             6.000
         240.756            -5.000
         240.700           -14.000
         240.636           -14.000
         240.580           -11.000
         240.548            -8.000
         240.524             1.000
         240.476            10.000
         240.428            17.000
         240.340            20.000
         240.228            22.000
         240.132            20.000
         240.060            15.000
         240.012             5.000
         239.948            -7.000
         239.884           -13.000
         239.788           -14.000
         239.700           -14.000
         239.628           -11.000
         239.580            -6.000
         239.508             1.000
         239.266            11.000
         238.906            20.000
         238.564            25.000
         238.114            29.000
         237.538            33.000
         236.935            35.000
         236.557            33.000
         236.269            28.000
         236.053            22.000
         235.945            14.000
         235.909            -2.000
         235.837           -29.000
         235.738           -40.000
         235.612           -44.000
         235.504           -44.000
         235.342           -42.000
         235.234           -36.000
         235.126           -25.000
         234.956            -5.000
         234.695            13.000
         234.348            27.000
         233.739            41.000
         233.217            48.000
         232.492            53.000
         231.795            54.000
         231.389            51.000
         230.940            41.000
         230.650            30.000
         230.360            19.000
         230.041            15.000
         229.751            18.000
         229.374            23.000
         228.968            32.000
         228.504            44.000
         227.953            53.000
         227.257            61.000
         226.677            64.000
         226.068            62.000
         225.459            55.000
         225.140            43.000
         224.864            27.000
         224.633            16.000
         224.400            13.000
         224.255            13.000
         224.052            17.000
         223.965            24.000
         223.646            36.000
         223.006            49.000
         222.172            57.000
         221.060            62.000
         219.392            63.000
         217.029            61.000
         214.458            53.000
         212.187            44.000
         210.195            34.000
         209.339            20.000
         209.108             4.000
         208.945            -8.000
         208.789           -16.000
         208.643           -15.000
         208.527           -10.000
         208.424            -6.000
         208.351            -6.000
         208.266           -10.000
         208.077           -18.000
         207.785           -22.000
         207.145           -28.000
         206.745           -28.000
         206.375           -24.000
         205.975           -18.000
         205.705           -15.000
         205.410           -16.000
         205.140           -18.000
         204.590           -26.000
         204.180           -36.000
         203.960           -43.000
         203.765           -44.000
         203.565           -40.000
         203.153           -33.000
         202.741           -25.000
         202.381           -16.000
         201.893            -7.000
         201.353            -1.000
         200.736             1.000
         200.196            -2.000
         199.630            -8.000
         199.296            -9.000
         198.910            -5.000
         198.499             2.000
         198.061            14.000
         197.547            22.000
         197.161            24.000
         196.699            23.000
         196.159            18.000
         195.477            12.000
         194.860            10.000
         194.256            14.000
         193.863            19.000
         193.375            27.000
         192.944            35.000
         192.569            42.000
         192.344            45.000
         192.063            45.000
         191.838            44.000
         191.613            39.000
         191.256            36.000
         190.769            39.000
         190.450            41.000
         190.262            42.000
         190.009            39.000
         189.784            32.000
         189.616            26.000
         189.503            22.000
         189.391            23.000
         189.334            30.000
         189.297            34.000
         189.203            37.000
         189.053            36.000
         188.903            33.000
         188.659            28.000
         188.472            27.000
         188.341            28.000
         188.153            32.000
         187.984            32.000
         187.666            26.000
         187.253            19.000
         186.846            14.000
         186.357            12.000
         185.817            14.000
         185.303            23.000
         184.969            36.000
         184.583            49.000
         184.351            58.000
         184.146            62.000
         183.786            64.000
         183.297            64.000
         182.937            60.000
         182.577            56.000
         182.423            55.000
         182.269            56.000
         182.011            60.000
         181.857            63.000
         181.549            65.000
         181.111            61.000
         180.777            57.000
         180.443            54.000
         180.237            55.000
         179.749            56.000
         179.414            52.000
         179.106            47.000
         178.797            41.000
         178.257            36.000
         177.871            35.000
         177.668            38.000
         177.432            38.000
         177.184            33.000
         177.016            26.000
         176.796            17.000
         176.425            11.000
         176.065            11.000
         175.626            18.000
         175.086            32.000
         174.614            47.000
         174.119            67.000
         173.770            77.000
         173.253            82.000
         172.476            80.000
         172.082            77.000
         171.588            71.000
         171.095            65.000
         170.528            65.000
         169.911            65.000
         169.381            70.000
         168.678            82.000
         168.135            88.000
         167.950            88.000
         167.654            85.000
         167.259            83.000
         166.889            84.000
         166.088            88.000
         165.632            92.000
         165.224            90.000
         164.894            85.000
         164.582            77.000
         164.342            65.000
         164.096            52.000
         163.856            44.000
         163.700            41.000
         163.508            43.000
         163.304            47.000
         163.112            51.000
         162.968            49.000
         162.818            45.000
         162.710            44.000
         162.626            47.000
         162.518            49.000
         162.506            48.000
         162.422            44.000
         162.326            38.000
         162.218            28.000
         162.086            21.000
         161.936            19.000
         161.828            20.000
         161.684            24.000
         161.528            31.000
         161.366            43.000
         161.140            54.000
         160.922            60.000
         160.704            62.000
         160.519            60.000
         160.275            57.000
         160.124            52.000
         159.922            49.000
         159.620            48.000
         159.368            51.000
         159.183            56.000
         158.948            64.000
         158.662            78.000
         158.192            90.000
         157.587            97.000
         157.100            99.000
         156.791            97.000
         156.661            95.000
         156.534            96.000
         156.466           102.000
         156.442           108.000
         156.380           111.000
         156.353           110.000
         156.287           105.000
         156.253           103.000
         156.219           104.000
         156.171           109.000
         156.109           112.000
         156.047           113.000
         156.006           113.000
         155.945           111.000
         155.869           108.000
         155.787           105.000
         155.718           105.000
         155.670           108.000
         155.588           112.000
         155.492           115.000
         155.410           114.000
         155.293           111.000
         155.207           107.000
         155.105           103.000
         154.995           103.000
         154.899           106.000
         154.837           111.000
         154.748           122.000
         154.565           131.000
         154.430           131.000
         154.346           128.000
         154.180           124.000
         154.086           124.000
         153.972           125.000
         153.878           133.000
         153.722           142.000
         153.618           143.000
         153.556           140.000
         153.421           137.000
         153.213           133.000
         153.104           135.000
         152.916           138.000
         152.615           147.000
         152.272           157.000
         151.959           161.000
         151.634           160.000
         151.504           158.000
         151.374           151.000
         151.223           145.000
         151.071           147.000
         150.919           151.000
         150.768           158.000
         150.551           165.000
         150.486           165.000
         150.399           149.000
         150.453           128.000
         150.367           108.000
         150.193           105.000
         150.020           105.000
         149.890           109.000
         149.652           131.000
         149.348           152.000
         149.045           156.000
         148.655           155.000
         148.308           149.000
         148.222           137.000
         148.092            80.000
         147.983            70.000
         147.875            80.000
         147.777           106.000
         147.648           130.000
         147.420           140.000
         147.258           139.000
         147.128           135.000
         147.019           121.000
         146.954           102.000
         146.900            85.000
         146.748            79.000
         146.640            77.000
         146.510            80.000
         146.423            86.000
         146.380            99.000
         146.326           117.000
         146.218           126.000
         146.001           129.000
         145.784           125.000
         145.698           117.000
         145.551           103.000
         145.486            93.000
         145.322            86.000
         145.159            84.000
         145.045            87.000
         144.914            93.000
         144.734           102.000
         144.555           113.000
         144.408           119.000
         144.277           121.000
         144.114           121.000
         143.950           117.000
         143.771           110.000
         143.607           109.000
         143.493           113.000
         143.428           119.000
         143.281           130.000
         143.166           134.000
         142.921           137.000
         142.529           136.000
         142.048           124.000
         141.656           115.000
         141.476           112.000
         141.378           112.000
         141.361           108.000
         141.239            99.000
         141.206            80.000
         141.174            57.000
         141.149            30.000
         141.035            21.000
         140.904            19.000
         140.806            21.000
         140.708            27.000
         140.537            69.000
         140.309            94.000
         140.195            98.000
         140.049            98.000
         139.593            91.000
         139.356            83.000
         139.194            73.000
         139.096           -15.000
         138.982           -24.000
         138.803           -23.000
         138.721           -19.000
         138.567            22.000
         138.339            53.000
         138.005            67.000
         137.646            78.000
         137.158            89.000
         136.816            92.000
         136.482            91.000
         136.238            87.000
         136.026            84.000
         135.879            84.000
         135.309            98.000
         135.147           104.000
         135.033           107.000
         134.957           107.000
         134.915           105.000
         134.840           102.000
         134.776           102.000
         134.723           105.000
         134.680           108.000
         134.627           114.000
         134.584           121.000
         134.541           123.000
         134.467           124.000
         134.381           121.000
         134.339           118.000
         134.296           117.000
         134.264           118.000
         134.232           123.000
         134.211           128.000
         134.136           135.000
         134.019           137.000
         133.955           135.000
         133.848           129.000
         133.752           125.000
         133.677           126.000
         133.603           133.000
         133.496           145.000
         133.389           158.000
         133.272           164.000
         133.133           160.000
         133.048           154.000
         132.931           155.000
         132.856           158.000
         132.781           168.000
         132.632           173.000
         132.525           168.000
         132.440           162.000
         132.344           161.000
         132.248           164.000
         132.173           170.000
         132.035           173.000
         131.971           171.000
         131.901           165.000
         131.848           157.000
         131.599           156.000
         131.234           159.000
         130.687           164.000
         129.957           167.000
         129.701           164.000
         128.935           150.000
         128.862           150.000
         128.606           149.000
         128.186           150.000
         127.767           157.000
         127.274           159.000
         127.018           155.000
         126.727           141.000
         126.453           111.000
         126.380            88.000
         126.124            84.000
         125.905            86.000
         125.796            93.000
         125.613           112.000
         125.449           134.000
         125.230           148.000
         124.902           153.000
         124.100           155.000
         122.350           152.000
         121.625           144.000
         120.775           129.000
         119.875           126.000
         119.025           127.000
         118.325           132.000
         117.425           145.000
         116.875           147.000
         116.375           141.000
         115.950           119.000
         115.600           108.000
         115.200           115.000
         115.100           133.000
         114.500           146.000
         113.650           152.000
         112.650           152.000
         111.730           149.000
         111.160           150.000
         110.410           154.000
         109.750           162.000
         109.240           166.000
         108.340           167.000
         107.950           164.000
         107.545           160.000
         106.765           160.000
         106.015           164.000
         105.205           178.000
         104.755           188.000
         104.365           192.000
         104.155           192.000
         103.795           186.000
         103.615           179.000
         103.375           178.000
         103.105           180.000
         102.865           184.000
         102.655           193.000
         102.445           207.000
         102.175           210.000
         101.935           210.000
         101.725           202.000
         101.515           197.000
         101.215           198.000
         101.005           203.000
         100.855           209.000
         100.465           223.000
         100.135           230.000
