C Sea-level fluctuations: Haq et al. 1987 (QQ to base RR)
C           SHORT TERM
C
C Time scale: Haq et al. 1987
C
C       TIME (ma)       AMPLITUDE (m)
C       ---------       -------------
        1000.000             0.000
         255.880             0.000
         255.520            -8.000
         255.280           -17.000
         255.000           -35.000
         254.920           -54.000
         254.750           -69.000
         254.550           -79.000
         254.310           -82.000
         254.130           -82.000
         253.950           -78.000
         253.850           -72.000
         253.750           -64.000
         253.610           -50.000
         253.430           -40.000
         253.030           -35.000
         252.670           -36.000
         252.310           -42.000
         252.110           -49.000
         251.930           -57.000
         251.710           -63.000
         251.290           -68.000
         250.980           -70.000
         250.660           -69.000
         250.360           -66.000
         250.180           -64.000
         250.060           -61.000
         249.960           -59.000
         249.680           -55.000
         249.380           -50.000
         249.080           -43.000
         248.680           -35.000
         248.300           -29.000
         247.860           -24.000
         247.580           -21.000
         247.360           -18.000
         247.100           -15.000
         246.680           -10.000
         246.440            -8.000
         246.260            -7.000
         245.740            -5.000
         245.400            -5.000
         245.020           -11.000
         244.740           -15.000
         244.250           -17.000
         243.870           -16.000
         243.490            -9.000
         243.250             0.000
         243.050             8.000
         242.710            11.000
         242.450            10.000
         242.230             5.000
         241.950             1.000
         241.690             2.000
         241.430             7.000
         241.210            12.000
         240.990            16.000
         240.690            14.000
         240.510            11.000
         240.330             7.000
         240.210             7.000
         240.030            10.000
         239.810            14.000
         239.650            18.000
         239.490            16.000
         239.270             6.000
         239.140            -5.000
         239.000           -14.000
         238.840           -14.000
         238.700           -11.000
         238.620            -8.000
         238.560             1.000
         238.440            10.000
         238.320            17.000
         238.100            20.000
         237.820            22.000
         237.580            20.000
         237.400            15.000
         237.280             5.000
         237.120            -7.000
         236.960           -13.000
         236.720           -14.000
         236.500           -14.000
         236.320           -11.000
         236.200            -6.000
         236.020             1.000
         235.740            11.000
         235.340            20.000
         234.960            25.000
         234.460            29.000
         233.820            33.000
         233.150            35.000
         232.730            33.000
         232.410            28.000
         232.170            22.000
         232.050            14.000
         232.010            -2.000
         231.930           -29.000
         231.820           -40.000
         231.680           -44.000
         231.560           -44.000
         231.380           -42.000
         231.260           -36.000
         231.140           -25.000
         230.970            -5.000
         230.790            13.000
         230.550            27.000
         230.130            41.000
         229.770            48.000
         229.270            53.000
         228.790            54.000
         228.510            51.000
         228.200            41.000
         228.000            30.000
         227.800            19.000
         227.580            15.000
         227.380            18.000
         227.120            23.000
         226.840            32.000
         226.520            44.000
         226.140            53.000
         225.660            61.000
         225.260            64.000
         224.840            62.000
         224.420            55.000
         224.200            43.000
         224.010            27.000
         223.850            16.000
         223.690            13.000
         223.590            13.000
         223.450            17.000
         223.390            24.000
         223.170            36.000
         222.830            49.000
         222.470            57.000
         221.990            62.000
         221.270            63.000
         220.250            61.000
         219.140            53.000
         218.160            44.000
         217.300            34.000
         216.250            20.000
         215.170             4.000
         214.410            -8.000
         213.680           -16.000
         213.000           -15.000
         212.460           -10.000
         211.980            -6.000
         211.640            -6.000
         211.240           -10.000
         210.360           -18.000
         209.570           -22.000
         208.290           -28.000
         207.490           -28.000
         206.750           -24.000
         205.950           -18.000
         205.410           -15.000
         204.820           -16.000
         204.280           -18.000
         203.180           -26.000
         202.360           -36.000
         201.920           -43.000
         201.530           -44.000
         201.130           -40.000
         200.730           -33.000
         200.410           -25.000
         200.130           -16.000
         199.750            -7.000
         199.330            -1.000
         198.850             1.000
         198.430            -2.000
         197.990            -8.000
         197.730            -9.000
         197.430            -5.000
         197.110             2.000
         196.770            14.000
         196.370            22.000
         196.070            24.000
         195.710            23.000
         195.290            18.000
         194.760            12.000
         194.280            10.000
         193.740            14.000
         193.320            19.000
         192.800            27.000
         192.340            35.000
         191.940            42.000
         191.700            45.000
         191.400            45.000
         191.160            44.000
         190.920            39.000
         190.540            36.000
         190.020            39.000
         189.680            41.000
         189.480            42.000
         189.210            39.000
         188.970            32.000
         188.790            26.000
         188.670            22.000
         188.550            23.000
         188.490            30.000
         188.450            34.000
         188.350            37.000
         188.190            36.000
         188.030            33.000
         187.770            28.000
         187.570            27.000
         187.430            28.000
         187.230            32.000
         187.050            32.000
         186.710            26.000
         186.270            19.000
         185.880            14.000
         185.500            12.000
         185.080            14.000
         184.680            23.000
         184.420            36.000
         184.120            49.000
         183.940            58.000
         183.780            62.000
         183.500            64.000
         183.120            64.000
         182.840            60.000
         182.560            56.000
         182.440            55.000
         182.320            56.000
         182.120            60.000
         182.000            63.000
         181.760            65.000
         181.420            61.000
         181.160            57.000
         180.900            54.000
         180.740            55.000
         180.360            56.000
         180.100            52.000
         179.860            47.000
         179.620            41.000
         179.200            36.000
         178.770            35.000
         178.410            38.000
         177.990            38.000
         177.550            33.000
         177.250            26.000
         176.860            17.000
         176.200            11.000
         175.560            11.000
         174.780            18.000
         173.820            32.000
         172.980            47.000
         172.100            67.000
         171.480            77.000
         170.800            82.000
         170.170            80.000
         169.850            77.000
         169.450            71.000
         169.050            65.000
         168.590            65.000
         168.090            65.000
         167.660            70.000
         167.090            82.000
         166.650            88.000
         166.500            88.000
         166.260            85.000
         165.940            83.000
         165.640            84.000
         164.980            88.000
         164.220            92.000
         163.540            90.000
         162.990            85.000
         162.470            77.000
         162.070            65.000
         161.660            52.000
         161.260            44.000
         161.000            41.000
         160.680            43.000
         160.340            47.000
         160.020            51.000
         159.780            49.000
         159.530            45.000
         159.350            44.000
         159.210            47.000
         159.030            49.000
         159.010            48.000
         158.870            44.000
         158.710            38.000
         158.530            28.000
         158.310            21.000
         158.060            19.000
         157.880            20.000
         157.640            24.000
         157.380            31.000
         157.110            43.000
         156.810            54.000
         156.550            60.000
         156.290            62.000
         156.070            60.000
         155.780            57.000
         155.600            52.000
         155.360            49.000
         155.000            48.000
         154.700            51.000
         154.480            56.000
         154.200            64.000
         153.860            78.000
         153.300            90.000
         152.580            97.000
         152.000            99.000
         151.100            97.000
         150.720            95.000
         150.350            96.000
         150.150           102.000
         150.080           108.000
         149.900           111.000
         149.820           110.000
         149.630           105.000
         149.530           103.000
         149.430           104.000
         149.290           109.000
         149.110           112.000
         148.930           113.000
         148.810           113.000
         148.630           111.000
         148.410           108.000
         148.170           105.000
         147.970           105.000
         147.830           108.000
         147.590           112.000
         147.310           115.000
         147.070           114.000
         146.730           111.000
         146.480           107.000
         146.180           103.000
         145.860           103.000
         145.580           106.000
         145.400           111.000
         145.140           122.000
         144.740           131.000
         144.480           131.000
         144.320           128.000
         144.000           124.000
         143.820           124.000
         143.600           125.000
         143.420           133.000
         143.120           142.000
         142.920           143.000
         142.800           140.000
         142.540           137.000
         142.140           133.000
         141.930           135.000
         141.570           138.000
         140.990           147.000
         140.330           157.000
         139.870           161.000
         139.570           160.000
         139.450           158.000
         139.330           151.000
         139.190           145.000
         139.050           147.000
         138.910           151.000
         138.770           158.000
         138.570           165.000
         138.510           165.000
         138.430           149.000
         138.480           128.000
         138.400           108.000
         138.240           105.000
         138.080           105.000
         137.960           109.000
         137.740           131.000
         137.460           152.000
         137.180           156.000
         136.820           155.000
         136.500           149.000
         136.420           137.000
         136.300            80.000
         136.200            70.000
         136.100            80.000
         136.010           106.000
         135.890           130.000
         135.680           140.000
         135.530           139.000
         135.410           135.000
         135.310           121.000
         135.250           102.000
         135.200            85.000
         135.060            79.000
         134.960            77.000
         134.840            80.000
         134.760            86.000
         134.720            99.000
         134.670           117.000
         134.570           126.000
         134.370           129.000
         134.170           125.000
         134.090           117.000
         133.940           103.000
         133.860            93.000
         133.660            86.000
         133.460            84.000
         133.320            87.000
         133.160            93.000
         132.940           102.000
         132.720           113.000
         132.540           119.000
         132.380           121.000
         132.180           121.000
         131.980           117.000
         131.760           110.000
         131.560           109.000
         131.420           113.000
         131.340           119.000
         131.160           130.000
         131.020           134.000
         130.720           137.000
         130.240           136.000
         129.650           124.000
         129.170           115.000
         128.950           112.000
         128.830           112.000
         128.810           108.000
         128.660            99.000
         128.620            80.000
         128.580            57.000
         128.550            30.000
         128.410            21.000
         128.250            19.000
         128.130            21.000
         128.010            27.000
         127.800            69.000
         127.520            94.000
         127.380            98.000
         127.200            98.000
         126.640            91.000
         126.350            83.000
         126.150            73.000
         126.030           -15.000
         125.890           -24.000
         125.670           -23.000
         125.570           -19.000
         125.380            22.000
         125.100            53.000
         124.690            67.000
         124.250            78.000
         123.650            89.000
         123.230            92.000
         122.820            91.000
         122.520            87.000
         122.260            84.000
         122.080            84.000
         121.380            98.000
         121.180           104.000
         121.040           107.000
         120.920           107.000
         120.840           105.000
         120.700           102.000
         120.580           102.000
         120.480           105.000
         120.400           108.000
         120.300           114.000
         120.220           121.000
         120.140           123.000
         120.000           124.000
         119.840           121.000
         119.760           118.000
         119.680           117.000
         119.620           118.000
         119.560           123.000
         119.520           128.000
         119.380           135.000
         119.160           137.000
         119.040           135.000
         118.840           129.000
         118.660           125.000
         118.520           126.000
         118.380           133.000
         118.180           145.000
         117.980           158.000
         117.760           164.000
         117.500           160.000
         117.340           154.000
         117.120           155.000
         116.980           158.000
         116.840           168.000
         116.560           173.000
         116.360           168.000
         116.200           162.000
         116.020           161.000
         115.840           164.000
         115.700           170.000
         115.440           173.000
         115.320           171.000
         115.190           165.000
         115.090           157.000
         114.890           156.000
         114.690           159.000
         114.390           164.000
         113.990           167.000
         113.850           164.000
         113.430           150.000
         113.390           150.000
         113.250           149.000
         113.020           150.000
         112.790           157.000
         112.520           159.000
         112.380           155.000
         112.220           141.000
         112.070           111.000
         112.030            88.000
         111.890            84.000
         111.770            86.000
         111.710            93.000
         111.610           112.000
         111.520           134.000
         111.400           148.000
         111.220           153.000
         110.840           155.000
         110.140           152.000
         109.850           144.000
         109.510           129.000
         109.150           126.000
         108.810           127.000
         108.530           132.000
         108.170           145.000
         107.950           147.000
         107.750           141.000
         107.580           119.000
         107.440           108.000
         107.280           115.000
         107.240           133.000
         107.000           146.000
         106.660           152.000
         106.260           152.000
         105.820           149.000
         105.440           150.000
         104.940           154.000
         104.500           162.000
         104.160           166.000
         103.560           167.000
         103.300           164.000
         103.030           160.000
         102.510           160.000
         102.010           164.000
         101.470           178.000
         101.170           188.000
         100.910           192.000
         100.770           192.000
         100.530           186.000
         100.410           179.000
         100.250           178.000
         100.070           180.000
          99.910           184.000
          99.770           193.000
          99.630           207.000
          99.450           210.000
          99.290           210.000
          99.150           202.000
          99.010           197.000
          98.810           198.000
          98.670           203.000
          98.570           209.000
          98.310           223.000
          98.090           230.000
          97.960           181.000
          97.820           177.000
          97.700           178.000
